/*--------------------------------*- C++ -*----------------------------------*\
  =========                 |
  \\      /  F ield         | OpenFOAM: The Open Source CFD Toolbox
   \\    /   O peration     | Website:  https://openfoam.org
    \\  /    A nd           | Version:  7
     \\/     M anipulation  |
\*---------------------------------------------------------------------------*/
FoamFile
{
    version     2.0;
    format      ascii;
    class       volScalarField;
    location    "0.0436581/dielectric";
    object      voltD;
}
// * * * * * * * * * * * * * * * * * * * * * * * * * * * * * * * * * * * * * //

dimensions      [1 2 -3 0 0 -1 0];

internalField   nonuniform List<scalar> 
5724
(
3470.39
3480.22
3496.24
3516.47
3539.39
3563.82
3589.17
3615.95
3645.97
3681.99
3726.91
3783.02
3851.57
3932.69
4025.43
4127.91
4237.42
4350.75
4464.45
4575.16
4679.98
4776.65
4863.7
4940.42
5006.77
5063.21
5110.56
5149.82
5182.05
5208.3
5228.93
5246.77
5264.97
5283.54
5302.49
5321.83
5341.58
5361.75
5382.35
5403.4
5424.91
5446.9
5469.38
5492.38
5515.91
5539.99
5564.64
5589.88
5615.73
5642.23
5669.38
5697.23
5725.8
5755.11
5785.21
5816.11
5847.86
5880.49
5914.05
5948.57
5984.1
6020.69
6058.39
6097.24
6137.31
6178.67
6221.38
6265.5
6311.11
6358.3
6407.16
6457.77
6510.24
6564.68
6621.19
6679.92
6740.99
6804.55
6870.74
6939.74
7011.7
7086.81
7165.23
7247.13
7332.67
7421.97
7515.09
7612
7712.53
7816.28
7922.55
8030.19
8137.57
8242.45
8342.16
3470.39
3480.22
3496.24
3516.46
3539.38
3563.81
3589.16
3615.94
3645.96
3681.98
3726.91
3783.03
3851.6
3932.75
4025.54
4128.06
4237.64
4351.06
4464.85
4575.68
4680.63
4777.44
4864.63
4941.49
5007.96
5064.52
5111.97
5151.32
5183.64
5209.96
5230.64
5248.52
5266.77
5285.39
5304.39
5323.79
5343.6
5363.83
5384.49
5405.61
5427.19
5449.25
5471.82
5494.89
5518.51
5542.68
5567.42
5592.76
5618.72
5645.32
5672.6
5700.57
5729.26
5758.72
5788.95
5820.01
5851.93
5884.74
5918.48
5953.2
5988.95
6025.77
6063.71
6102.83
6143.19
6184.85
6227.89
6272.37
6318.38
6366
6415.32
6466.44
6519.48
6574.53
6631.74
6691.22
6753.14
6817.65
6884.91
6955.11
7028.43
7105.09
7185.29
7269.24
7357.15
7449.2
7545.52
7646.18
7751.08
7859.92
7972.05
8086.33
8200.99
8313.47
8420.56
3470.38
3480.21
3496.23
3516.46
3539.37
3563.79
3589.14
3615.92
3645.94
3681.97
3726.9
3783.04
3851.63
3932.81
4025.63
4128.21
4237.85
4351.35
4465.24
4576.18
4681.25
4778.19
4865.51
4942.49
5009.08
5065.75
5113.3
5152.74
5185.13
5211.51
5232.24
5250.16
5268.46
5287.13
5306.18
5325.63
5345.5
5365.78
5386.51
5407.69
5429.33
5451.46
5474.1
5497.25
5520.94
5545.2
5570.03
5595.46
5621.51
5648.22
5675.6
5703.69
5732.51
5762.09
5792.46
5823.67
5855.74
5888.71
5922.63
5957.54
5993.48
6030.51
6068.69
6108.05
6148.68
6190.63
6233.98
6278.8
6325.18
6373.2
6422.96
6474.56
6528.12
6583.76
6641.61
6701.81
6764.53
6829.94
6898.21
6969.55
7044.18
7122.33
7204.25
7290.18
7380.4
7475.16
7574.68
7679.1
7788.47
7902.59
8020.92
8142.36
8265.04
8386.06
8501.54
3470.38
3480.21
3496.23
3516.45
3539.36
3563.78
3589.13
3615.9
3645.93
3681.96
3726.9
3783.05
3851.66
3932.87
4025.73
4128.35
4238.05
4351.62
4465.6
4576.65
4681.83
4778.89
4866.33
4943.43
5010.13
5066.9
5114.55
5154.07
5186.52
5212.96
5233.74
5251.7
5270.04
5288.76
5307.86
5327.36
5347.27
5367.61
5388.39
5409.62
5431.33
5453.53
5476.23
5499.45
5523.22
5547.55
5572.46
5597.98
5624.12
5650.92
5678.41
5706.6
5735.53
5765.23
5795.73
5827.07
5859.28
5892.4
5926.48
5961.57
5997.7
6034.93
6073.31
6112.9
6153.78
6196
6239.64
6284.77
6331.49
6379.88
6430.05
6482.1
6536.15
6592.34
6650.79
6711.67
6775.14
6841.38
6910.61
6983.04
7058.9
7138.47
7222.02
7309.87
7402.33
7499.73
7602.4
7710.58
7824.47
7944.03
8068.87
8198.03
8329.58
8460.29
8585.43
3470.38
3480.21
3496.23
3516.44
3539.35
3563.77
3589.11
3615.89
3645.91
3681.94
3726.9
3783.06
3851.69
3932.92
4025.82
4128.48
4238.24
4351.89
4465.95
4577.09
4682.38
4779.55
4867.1
4944.31
5011.11
5067.98
5115.71
5155.3
5187.82
5214.31
5235.13
5253.14
5271.51
5290.27
5309.41
5328.96
5348.92
5369.3
5390.14
5411.42
5433.19
5455.44
5478.2
5501.49
5525.32
5549.72
5574.71
5600.31
5626.53
5653.42
5681
5709.29
5738.32
5768.13
5798.75
5830.21
5862.55
5895.82
5930.05
5965.29
6001.59
6039
6077.58
6117.38
6158.49
6200.95
6244.86
6290.28
6337.31
6386.05
6436.59
6489.05
6543.56
6600.25
6659.26
6720.76
6784.93
6851.96
6922.07
6995.51
7072.53
7153.43
7238.54
7328.21
7422.81
7522.76
7628.49
7740.39
7858.8
7983.91
8115.56
8252.99
8394.36
8536.14
8672.61
3470.38
3480.21
3496.22
3516.44
3539.35
3563.76
3589.1
3615.87
3645.89
3681.93
3726.9
3783.07
3851.72
3932.97
4025.9
4128.61
4238.42
4352.13
4466.28
4577.5
4682.89
4780.16
4867.82
4945.13
5012.03
5068.98
5116.79
5156.45
5189.02
5215.56
5236.42
5254.46
5272.88
5291.67
5310.85
5330.44
5350.44
5370.87
5391.75
5413.09
5434.9
5457.21
5480.02
5503.37
5527.27
5551.73
5576.79
5602.45
5628.75
5655.72
5683.38
5711.76
5740.89
5770.8
5801.52
5833.09
5865.55
5898.95
5933.31
5968.7
6005.15
6042.73
6081.49
6121.49
6162.79
6205.48
6249.63
6295.32
6342.63
6391.68
6442.57
6495.41
6550.33
6607.48
6667
6729.07
6793.88
6861.63
6932.56
7006.93
7085.02
7167.17
7253.72
7345.09
7441.72
7544.1
7652.77
7768.28
7891.17
8021.87
8160.56
8306.8
8459.03
8613.55
8763.54
3470.38
3480.2
3496.22
3516.43
3539.34
3563.74
3589.08
3615.85
3645.88
3681.92
3726.89
3783.08
3851.75
3933.02
4025.98
4128.73
4238.6
4352.37
4466.58
4577.89
4683.37
4780.73
4868.48
4945.88
5012.87
5069.91
5117.78
5157.5
5190.13
5216.71
5237.61
5255.68
5274.13
5292.95
5312.17
5331.79
5351.83
5372.31
5393.23
5414.61
5436.47
5458.82
5481.69
5505.09
5529.04
5553.56
5578.68
5604.41
5630.78
5657.82
5685.56
5714.01
5743.23
5773.22
5804.04
5835.71
5868.28
5901.79
5936.28
5971.79
6008.39
6046.11
6085.03
6125.2
6166.7
6209.59
6253.95
6299.87
6347.45
6396.78
6447.97
6501.15
6556.45
6614.01
6673.99
6736.57
6801.96
6870.37
6942.04
7017.26
7096.33
7179.61
7267.49
7360.43
7458.94
7563.59
7675.05
7794.01
7921.24
8057.5
8203.34
8358.86
8523.01
8692.29
8858.78
3470.37
3480.2
3496.21
3516.42
3539.33
3563.73
3589.07
3615.84
3645.86
3681.91
3726.89
3783.09
3851.77
3933.07
4026.06
4128.84
4238.76
4352.58
4466.87
4578.25
4683.81
4781.26
4869.1
4946.58
5013.65
5070.75
5118.69
5158.47
5191.14
5217.76
5238.69
5256.79
5275.27
5294.12
5313.37
5333.03
5353.1
5373.61
5394.57
5415.99
5437.89
5460.29
5483.2
5506.65
5530.65
5555.22
5580.39
5606.18
5632.61
5659.71
5687.52
5716.05
5745.33
5775.41
5806.31
5838.07
5870.74
5904.35
5938.94
5974.57
6011.29
6049.15
6088.21
6128.53
6170.19
6213.26
6257.81
6303.95
6351.75
6401.33
6452.8
6506.27
6561.9
6619.83
6680.22
6743.26
6809.16
6878.14
6950.48
7026.45
7106.4
7190.7
7279.78
7374.14
7474.35
7581.09
7695.12
7817.31
7948.68
8090.3
8243.27
8408.39
8585.49
8771.86
8958.9
3470.37
3480.2
3496.21
3516.42
3539.32
3563.72
3589.05
3615.82
3645.85
3681.9
3726.89
3783.1
3851.8
3933.12
4026.13
4128.95
4238.91
4352.79
4467.13
4578.59
4684.22
4781.75
4869.66
4947.22
5014.35
5071.52
5119.52
5159.34
5192.05
5218.71
5239.67
5257.79
5276.29
5295.18
5314.45
5334.14
5354.24
5374.78
5395.77
5417.23
5439.16
5461.6
5484.55
5508.04
5532.08
5556.7
5581.92
5607.76
5634.24
5661.4
5689.26
5717.86
5747.21
5777.35
5808.33
5840.17
5872.92
5906.61
5941.3
5977.03
6013.86
6051.83
6091.02
6131.47
6173.27
6216.49
6261.22
6307.53
6355.53
6405.32
6457.03
6510.76
6566.68
6624.92
6685.67
6749.1
6815.45
6884.94
6957.85
7034.49
7115.19
7200.38
7290.51
7386.13
7487.86
7596.45
7712.79
7837.92
7973.1
8119.79
8279.64
8454.39
8645.26
8851.23
9064.38
3470.37
3480.19
3496.2
3516.41
3539.31
3563.71
3589.03
3615.8
3645.83
3681.89
3726.88
3783.1
3851.82
3933.16
4026.2
4129.05
4239.05
4352.98
4467.38
4578.9
4684.6
4782.19
4870.17
4947.79
5014.99
5072.21
5120.26
5160.12
5192.87
5219.56
5240.54
5258.69
5277.21
5296.11
5315.42
5335.13
5355.26
5375.82
5396.84
5418.33
5440.29
5462.76
5485.75
5509.27
5533.35
5558.01
5583.27
5609.15
5635.68
5662.89
5690.8
5719.44
5748.85
5779.06
5810.09
5842
5874.82
5908.59
5943.36
5979.17
6016.09
6054.16
6093.45
6134.01
6175.93
6219.29
6264.15
6310.62
6358.78
6408.76
6460.66
6514.62
6570.77
6629.28
6690.33
6754.1
6820.82
6890.74
6964.13
7041.32
7122.68
7208.62
7299.64
7396.32
7499.35
7609.54
7727.89
7855.59
7994.14
8145.4
8311.65
8495.68
8700.58
8928.48
9175.13
3470.37
3480.19
3496.2
3516.41
3539.3
3563.69
3589.02
3615.79
3645.81
3681.87
3726.88
3783.11
3851.84
3933.2
4026.26
4129.15
4239.18
4353.15
4467.6
4579.18
4684.93
4782.59
4870.62
4948.3
5015.55
5072.82
5120.91
5160.81
5193.59
5220.31
5241.3
5259.47
5278.01
5296.94
5316.26
5335.99
5356.14
5376.73
5397.77
5419.28
5441.28
5463.77
5486.79
5510.34
5534.45
5559.14
5584.44
5610.36
5636.92
5664.16
5692.12
5720.81
5750.26
5780.51
5811.6
5843.56
5876.44
5910.27
5945.1
5980.99
6017.98
6056.13
6095.5
6136.16
6178.18
6221.64
6266.61
6313.2
6361.51
6411.63
6463.69
6517.83
6574.17
6632.9
6694.19
6758.23
6825.25
6895.51
6969.29
7046.93
7128.81
7215.36
7307.11
7404.66
7508.74
7620.24
7740.23
7870.07
8011.46
8166.61
8338.43
8530.84
8749.16
9000.24
9289.17
3470.36
3480.19
3496.19
3516.4
3539.29
3563.68
3589
3615.77
3645.8
3681.86
3726.87
3783.12
3851.86
3933.24
4026.32
4129.24
4239.31
4353.32
4467.81
4579.43
4685.24
4782.94
4871.03
4948.76
5016.05
5073.36
5121.48
5161.41
5194.21
5220.95
5241.97
5260.14
5278.7
5297.64
5316.98
5336.73
5356.9
5377.51
5398.57
5420.1
5442.11
5464.63
5487.67
5511.24
5535.38
5560.1
5585.42
5611.37
5637.96
5665.24
5693.22
5721.94
5751.43
5781.72
5812.85
5844.86
5877.78
5911.66
5946.54
5982.48
6019.53
6057.74
6097.18
6137.9
6180
6223.54
6268.61
6315.29
6363.7
6413.93
6466.12
6520.38
6576.88
6635.77
6697.24
6761.48
6828.73
6899.25
6973.33
7051.31
7133.57
7220.58
7312.87
7411.08
7515.95
7628.44
7749.69
7881.16
8024.74
8182.94
8359.18
8558.4
8788.13
9060.89
9399.16
8434.69
8517.47
8588.58
8647.94
8696.27
8734.67
8764.32
8786.3
8801.55
8810.81
8814.66
8813.52
8807.67
8797.27
8782.37
8762.93
8738.78
8709.66
8675.19
8634.87
8588.02
8533.81
8471.18
8398.81
8315.08
8218
8105.19
7973.91
7821.21
7644.21
7440.74
7210.18
8519.62
8607.48
8682.03
8743.43
8792.8
8831.62
8861.37
8883.36
8898.64
8908.06
8912.24
8911.63
8906.54
8897.16
8883.53
8865.62
8843.28
8816.25
8784.18
8746.55
8702.71
8651.82
8592.79
8524.27
8444.54
8351.46
8242.39
8114.18
7963.25
7785.94
7579.25
7342.02
8607.96
8701.28
8779.22
8842.34
8892.33
8931.15
8960.64
8982.32
8997.4
9006.79
9011.17
9011.02
9006.65
8998.25
8985.9
8969.56
8949.1
8924.28
8894.74
8860
8819.41
8772.14
8717.1
8652.92
8577.81
8489.48
8385.05
8260.91
8112.79
7936.02
7726.45
7482.03
8700.25
8799.46
8880.62
8944.99
8995.03
9033.33
9062.12
9083.16
9097.78
9106.95
9111.4
9111.6
9107.89
9100.47
9089.4
9074.68
9056.17
9033.65
9006.79
8975.11
8938.01
8894.67
8844.02
8784.68
8714.83
8632.08
8533.31
8414.46
8270.47
8095.44
7883.57
7631.37
8797.23
8902.77
8986.8
9051.71
9101.07
9138.22
9165.81
9185.82
9199.7
9208.46
9212.83
9213.3
9210.2
9203.72
9193.95
9180.87
9164.38
9144.26
9120.2
9091.77
9058.39
9019.28
8973.41
8919.42
8855.52
8779.24
8687.28
8575.17
8436.99
8265.33
8052.15
7791.6
8899.93
9012.19
9098.41
9162.85
9210.59
9245.83
9271.65
9290.24
9303.08
9311.22
9315.37
9316.01
9313.46
9307.91
9299.44
9288.04
9273.62
9255.99
9234.86
9209.84
9180.4
9145.8
9105.1
9057
8999.72
8930.85
8846.98
8743.29
8613.02
8447.03
8234.21
7964.83
9009.78
9129.02
9216.23
9278.75
9323.66
9356.11
9379.56
9396.28
9407.8
9415.11
9418.9
9419.63
9417.58
9412.93
9405.76
9396.07
9383.77
9368.7
9350.62
9329.17
9303.87
9274.07
9238.9
9197.17
9147.23
9086.74
9012.31
8918.96
8799.22
8642.06
8432.35
8154.05
9129
9254.96
9341.06
9399.66
9440.28
9468.95
9489.37
9503.81
9513.71
9520.01
9523.31
9524.03
9522.43
9518.67
9512.8
9504.84
9494.71
9482.28
9467.34
9449.59
9428.62
9403.86
9374.57
9339.69
9297.74
9246.58
9183.03
9102.15
8996.07
8852.03
8650.01
8363.76
9261.14
9392.25
9473.71
9525.68
9560.29
9584.14
9600.89
9612.63
9620.65
9625.75
9628.45
9629.1
9627.91
9625
9620.44
9614.23
9606.31
9596.58
9584.86
9570.93
9554.44
9534.95
9511.83
9484.21
9450.87
9409.96
9358.68
9292.5
9203.71
9078.5
8891.63
8601.19
9412.39
9543.66
9614.76
9656.64
9683.36
9701.36
9713.83
9722.51
9728.42
9732.18
9734.18
9734.69
9733.86
9731.8
9728.54
9724.1
9718.42
9711.43
9703.02
9692.99
9681.12
9667.06
9650.36
9630.37
9606.14
9576.28
9538.56
9489.28
9421.72
9322.5
9162.7
8878.79
9594.3
9712.18
9764.11
9791.91
9808.92
9820.14
9827.85
9833.18
9836.8
9839.1
9840.34
9840.66
9840.18
9838.94
9836.99
9834.32
9830.9
9826.7
9821.62
9815.58
9808.42
9799.93
9789.84
9777.73
9763.02
9744.83
9721.73
9691.27
9648.72
9583.74
9469.06
9219.74
9830.16
9899.47
9920.33
9930.25
9936.11
9939.93
9942.54
9944.34
9945.56
9946.33
9946.75
9946.86
9946.7
9946.29
9945.64
9944.75
9943.61
9942.2
9940.51
9938.49
9936.1
9933.26
9929.88
9925.83
9920.9
9914.79
9907
9896.69
9882.11
9859.12
9813.73
9670.38
6952.82
6672.11
6374.64
6065.53
5748.96
5427.89
5104.13
4778.51
4451.12
4121.44
3788.4
3450.42
3105.37
2750.36
2381.55
1993.74
1579.84
1130.45
638.312
7074.69
6781.79
6471.39
6149.78
5821.81
5490.76
5158.48
4825.74
4492.55
4158.29
3821.9
3481.9
3136.38
2782.95
2418.69
2040.12
1643.7
1227.95
803.808
7203.3
6896.34
6571.27
6235.79
5895.53
5553.98
5212.96
4873.1
4534.26
4195.73
3856.41
3514.92
3169.6
2818.57
2459.81
2091.48
1712.94
1327.78
952.768
7339.37
7015.94
6674.04
6323.14
5969.61
5617.05
5267.11
4920.19
4575.89
4233.39
3891.53
3549
3204.41
2856.33
2503.59
2145.68
1784.03
1424.79
1084.86
7483.76
7140.69
6779.31
6411.22
6043.41
5679.38
5320.43
4966.53
4617.03
4270.86
3926.83
3583.67
3240.19
2895.4
2548.81
2200.92
1854.44
1516.43
1201.75
7637.52
7270.53
6886.45
6499.22
6116.16
5740.31
5372.33
5011.66
4657.23
4307.75
3961.88
3618.42
3276.33
2934.98
2594.39
2255.77
1922.49
1601.57
1305.34
7801.84
7405.14
6994.48
6586.06
6186.91
5799.05
5422.18
5055.05
4696.06
4343.62
3996.27
3652.78
3312.26
2974.34
2639.41
2309.13
1987.1
1679.83
1397.33
7978.05
7543.64
7101.87
6670.33
6254.51
5854.72
5469.33
5096.17
4733.06
4378.08
4029.59
3686.32
3347.48
3012.87
2683.15
2360.2
2047.6
1751.2
1479.06
8167.27
7684.19
7206.41
6750.21
6317.65
5906.38
5513.08
5134.48
4767.81
4410.74
4061.45
3718.62
3381.51
3050.03
2725
2408.37
2103.59
1815.81
1551.57
8369.54
7823.26
7304.95
6823.5
6374.85
5953.05
5552.72
5169.48
4799.87
4441.22
4091.5
3749.33
3413.97
3085.4
2764.51
2453.25
2154.85
1873.85
1615.68
8581.39
7954.55
7393.21
6887.65
6424.59
5993.73
5587.6
5200.67
4828.89
4469.22
4119.46
3778.15
3444.54
3118.64
2801.34
2494.54
2201.26
1925.54
1671.99
8789.09
8067.59
7465.93
6939.98
6465.34
6027.53
5617.12
5227.65
4854.53
4494.45
4145.06
3804.82
3472.96
3149.48
2835.24
2532.07
2242.79
1971.05
1720.94
183.406
103.153
74.8909
59.432
49.1583
41.6852
35.9738
31.4717
27.8472
24.883
22.4285
20.3748
18.6405
17.1638
15.8965
14.8011
13.8477
13.0124
12.2761
11.6232
11.0408
10.5188
10.0484
9.62266
9.23558
8.88224
8.55847
8.26077
7.98614
7.73206
7.49633
7.27709
7.0727
6.88176
6.70306
6.5355
6.37817
6.23021
6.09091
5.9596
5.83572
5.71874
5.60821
5.50371
5.40487
5.31136
5.22289
5.13917
5.05997
4.98507
4.91429
4.84748
4.78443
4.72503
4.66917
4.61676
4.56771
4.52194
4.47941
4.44008
4.40394
4.371
4.34127
4.31479
4.29164
4.2719
4.25571
4.24321
4.23462
4.23019
4.2302
4.23505
4.24518
4.26116
4.28364
4.31346
4.35163
4.39937
4.4582
4.52996
4.61701
4.72221
4.84916
5.00242
5.18769
5.41251
5.68648
6.02222
6.43716
6.9553
7.61158
8.46022
9.59174
11.1803
13.6286
18.2344
31.7182
442.797
294.363
220.955
176.791
146.662
124.545
107.57
94.1608
83.35
74.5012
67.1695
61.0319
55.847
51.4306
47.6398
44.3623
41.509
39.0087
36.8043
34.8491
33.1051
31.5415
30.1324
28.8569
27.6971
26.6382
25.6679
24.7757
23.9526
23.1909
22.4843
21.827
21.2143
20.6418
20.106
19.6036
19.1318
18.6882
18.2705
17.8767
17.5052
17.1544
16.8229
16.5096
16.2131
15.9327
15.6674
15.4163
15.1787
14.9541
14.7418
14.5414
14.3523
14.1741
14.0066
13.8494
13.7022
13.5649
13.4373
13.3194
13.2109
13.1121
13.0229
12.9435
12.874
12.8147
12.7661
12.7286
12.7027
12.6893
12.6893
12.7037
12.7339
12.7816
12.8488
12.938
13.0522
13.1949
13.3709
13.5855
13.8458
14.1604
14.5399
14.998
15.5517
16.2233
17.0415
18.0438
19.2816
20.8259
22.779
25.2985
28.6427
33.2915
40.2592
52.1263
76.7151
641.545
463.784
358.528
290.074
241.84
205.91
178.132
156.095
138.283
123.679
111.564
101.412
92.8303
85.5159
79.234
73.8002
69.0677
64.9192
61.2601
58.0136
55.1171
52.5192
50.1777
48.0574
46.1292
44.3685
42.7548
41.2706
39.9011
38.6338
37.4579
36.3641
35.3441
34.3912
33.4993
32.6629
31.8774
31.1387
30.4431
29.7874
29.1687
28.5845
28.0324
27.5105
27.0168
26.5496
26.1077
25.6894
25.2937
24.9195
24.5659
24.232
23.9169
23.6201
23.341
23.079
22.8339
22.6051
22.3925
22.1959
22.0152
21.8505
21.7017
21.5692
21.4533
21.3545
21.2733
21.2105
21.1672
21.1446
21.1441
21.1677
21.2175
21.2964
21.4076
21.5553
21.7444
21.9809
22.2723
22.6278
23.0589
23.5797
24.2078
24.9658
25.8814
26.9916
28.3431
29.9969
32.0371
34.5777
37.782
41.8969
47.3151
54.7295
65.4668
82.3256
111.372
802.475
612.149
485.412
397.484
333.443
284.909
247.025
216.801
192.285
172.133
155.387
141.337
129.445
119.301
110.582
103.034
96.4567
90.6873
85.5959
81.0764
77.0422
73.4224
70.1586
67.2022
64.5126
62.056
59.8038
57.732
55.8199
54.0501
52.4076
50.8795
49.4545
48.1229
46.8763
45.7072
44.6092
43.5765
42.604
41.6872
40.8221
40.0052
39.2331
38.5031
37.8126
37.1592
36.541
35.9559
35.4024
34.8789
34.3842
33.9171
33.4762
33.061
32.6704
32.3038
31.9607
31.6405
31.3429
31.0677
30.8147
30.5841
30.3757
30.1901
30.0277
29.889
29.775
29.6868
29.6256
29.5933
29.5919
29.624
29.6927
29.8018
29.9558
30.1605
30.4227
30.7508
31.1551
31.6481
32.2458
32.9677
33.838
34.8876
36.1547
37.6898
39.5566
41.838
44.6473
48.1366
52.5207
58.1161
65.408
75.2029
88.8962
108.987
139.648
937.525
742.05
601.028
497.958
420.544
360.816
313.695
275.851
245.018
219.599
198.428
180.634
165.553
152.672
141.59
131.987
123.611
116.259
109.766
103.998
98.847
94.2224
90.0504
86.2695
82.8284
79.6842
76.8007
74.1471
71.6975
69.4295
67.3243
65.3651
63.5378
61.8299
60.2309
58.731
57.3222
55.997
54.7489
53.5721
52.4616
51.4128
50.4216
49.4844
48.5977
47.7587
46.9648
46.2134
45.5024
44.8301
44.1945
43.5945
43.0282
42.4947
41.9928
41.5218
41.081
40.6694
40.2869
39.9331
39.6079
39.3112
39.0432
38.8044
38.5952
38.4165
38.2694
38.1552
38.0757
38.0331
38.0301
38.0698
38.1562
38.2941
38.4894
38.7491
39.082
39.4987
40.0121
40.6381
41.3968
42.3127
43.4163
44.7462
46.3504
48.2917
50.6495
53.526
57.0601
61.4358
66.9079
73.8419
82.7748
94.5449
110.468
132.581
163.624
1053.41
856.136
705.622
590.983
502.508
433.062
377.67
332.864
296.18
265.832
240.489
219.144
201.022
185.522
172.168
160.583
150.468
141.581
133.725
126.741
120.499
114.891
109.829
105.238
101.058
97.2368
93.7307
90.503
87.5223
84.7617
82.1984
79.8124
77.5863
75.5054
73.5566
71.7284
70.0109
68.395
66.873
65.4378
64.0833
62.8038
61.5945
60.4509
59.3689
58.3451
57.3762
56.459
55.5913
54.7705
53.9946
53.2621
52.5707
51.9192
51.3063
50.7311
50.1926
49.6899
49.2226
48.7903
48.3927
48.0301
47.7023
47.41
47.1539
46.9348
46.7541
46.6135
46.5151
46.4615
46.4558
46.502
46.6047
46.7698
47.0042
47.3165
47.717
48.2184
48.8364
49.5896
50.5021
51.6031
52.9288
54.525
56.4482
58.7727
61.5914
65.0234
69.2286
74.4165
80.8706
88.9863
99.3183
112.681
130.241
153.582
184.474
1154.18
956.644
799.797
676.408
578.947
501.227
438.571
387.517
345.502
310.611
281.388
256.717
235.73
217.748
202.231
188.753
176.969
166.603
157.431
149.269
141.966
135.401
129.47
124.087
119.183
114.698
110.58
106.787
103.283
100.037
97.021
94.2131
91.5927
89.1425
86.8473
84.6937
82.6699
80.7657
78.9718
77.28
75.683
74.1743
72.7483
71.3995
70.1233
68.9155
67.7724
66.6903
65.6664
64.6978
63.7822
62.9176
62.1015
61.3324
60.6089
59.9297
59.2938
58.7001
58.1481
57.6373
57.1674
56.7387
56.351
56.005
55.7017
55.4419
55.2272
55.0596
54.9415
54.8759
54.8664
54.9177
55.0351
55.2253
55.4963
55.8581
56.3226
56.9043
57.6212
58.4948
59.5527
60.8282
62.3628
64.2085
66.4297
69.1103
72.3548
76.2964
81.1119
87.0293
94.3511
103.486
114.982
129.6
148.334
172.392
202.91
1242.44
1045.34
884.256
754.305
649.653
565.018
496.102
439.545
392.755
353.743
320.965
293.22
269.566
249.257
231.703
216.43
203.058
191.279
180.843
171.546
163.22
155.727
148.951
142.798
137.187
132.052
127.335
122.987
118.969
115.245
111.783
108.559
105.55
102.735
100.097
97.6212
95.2944
93.1045
91.041
89.0947
87.2571
85.521
83.8796
82.327
80.8578
79.4671
78.1509
76.9048
75.7255
74.6098
73.5551
72.559
71.6186
70.7324
69.8986
69.1157
68.3828
67.6982
67.0616
66.4724
65.9303
65.4354
64.9876
64.5878
64.2369
63.9359
63.6866
63.4913
63.3526
63.274
63.2595
63.3142
63.4444
63.6574
63.9622
64.3701
64.8943
65.5511
66.3605
67.3467
68.5402
69.9782
71.7065
73.7828
76.278
79.2842
82.9155
87.316
92.6754
99.2343
107.305
117.299
129.741
145.324
164.882
189.327
219.392
1319.94
1123.57
959.674
824.856
714.545
624.244
550.045
488.735
437.751
395.065
359.081
328.536
302.43
279.967
260.513
243.556
228.685
215.565
203.925
193.542
184.232
175.844
168.252
161.351
155.053
149.285
143.982
139.092
134.57
130.376
126.477
122.843
119.45
116.275
113.299
110.506
107.879
105.407
103.076
100.878
98.8018
96.8401
94.9852
93.2304
91.5695
89.9973
88.509
87.0998
85.7661
84.5042
83.311
82.1841
81.1201
80.1173
79.1736
78.2874
77.4576
76.6825
75.9614
75.2939
74.6794
74.1183
73.6104
73.1564
72.7575
72.4149
72.1304
71.9066
71.7464
71.6535
71.6324
71.6889
71.8296
72.0628
72.3982
72.8482
73.4274
74.1535
75.0484
76.1384
77.4568
79.0438
80.9492
83.2352
85.9781
89.2766
93.2523
98.0574
103.891
111
119.702
130.399
143.589
159.893
180.01
204.63
234.232
1387.91
1192.37
1026.65
888.289
773.627
678.796
600.244
534.927
480.335
434.442
395.618
362.563
334.236
309.804
288.597
270.076
253.802
239.421
226.642
215.226
204.976
195.73
187.352
179.729
172.766
166.382
160.509
155.09
150.075
145.422
141.093
137.058
133.287
129.758
126.449
123.341
120.419
117.667
115.073
112.625
110.313
108.128
106.062
104.106
102.255
100.503
98.844
97.2729
95.7857
94.3785
93.0478
91.7908
90.6038
89.4849
88.4318
87.4427
86.5164
85.6509
84.8456
84.0998
83.4132
82.7857
82.2174
81.709
81.2618
80.8769
80.5566
80.3033
80.1205
80.012
79.9828
80.039
80.1879
80.4383
80.8009
81.2888
81.9177
82.7068
83.6795
84.8638
86.2953
88.0169
90.0813
92.5545
95.517
99.0724
103.348
108.501
114.735
122.303
131.519
142.773
156.533
173.356
193.83
218.488
247.646
1447.2
1252.5
1085.68
944.84
826.95
728.62
646.599
578.003
520.394
471.765
430.479
395.216
364.91
338.703
315.901
295.943
278.37
262.812
248.963
236.571
225.429
215.364
206.233
197.915
190.31
183.331
176.905
170.971
165.476
160.373
155.624
151.195
147.054
143.177
139.54
136.123
132.909
129.882
127.028
124.333
121.788
119.382
117.106
114.952
112.913
110.982
109.153
107.422
105.782
104.231
102.763
101.377
100.068
98.8334
97.6714
96.5799
95.5575
94.6019
93.7126
92.8887
92.1298
91.4359
90.807
90.2439
89.7479
89.3203
88.9633
88.6797
88.473
88.3476
88.3085
88.3623
88.5168
88.7813
89.1672
89.6884
90.3616
91.2069
92.2491
93.5175
95.0497
96.8904
99.0948
101.732
104.884
108.659
113.188
118.63
125.193
133.128
142.744
154.419
168.589
185.76
206.435
231.039
259.79
1498.42
1304.55
1137.17
994.726
874.593
773.71
689.056
617.888
557.846
506.955
463.592
426.43
394.395
366.614
342.38
321.117
302.354
285.707
270.861
257.554
245.569
234.727
224.878
215.895
207.672
200.119
193.158
186.725
180.762
175.222
170.063
165.248
160.745
156.526
152.567
148.847
145.346
142.047
138.935
135.998
133.222
130.598
128.115
125.764
123.539
121.431
119.435
117.544
115.753
114.059
112.455
110.941
109.51
108.161
106.891
105.697
104.579
103.534
102.561
101.659
100.828
100.067
99.3775
98.7594
98.2142
97.7431
97.3487
97.0338
96.802
96.658
96.6072
96.6564
96.8137
97.0891
97.4943
98.044
98.7556
99.6499
100.753
102.095
103.715
105.658
107.983
110.759
114.07
118.028
122.762
128.435
135.253
143.465
153.372
165.338
179.775
197.146
217.898
242.387
270.773
108.663
190.891
264.807
331.235
391.615
447.09
498.576
546.713
592.007
634.843
675.512
714.282
751.334
786.82
820.897
853.67
885.237
915.686
945.084
973.516
1001.03
1027.69
1053.54
1078.62
1102.98
1126.65
1149.67
1172.07
1193.87
1215.12
1235.83
1256.02
1275.73
1294.95
1313.73
1332.08
1350.01
1367.53
1384.67
1401.44
1417.86
1433.93
1449.66
1465.08
1480.19
1495
1509.51
1523.75
1537.71
1551.42
1564.86
1578.06
1591.02
1603.75
1616.26
1628.54
1640.61
1652.47
1664.14
1675.6
1686.88
1697.97
1708.88
1719.61
1730.17
1740.57
1750.81
1760.88
1770.8
1780.57
1790.19
1799.67
1809
1818.21
1827.27
1836.2
1845.01
1853.69
1862.25
1870.69
1879.01
1887.22
1895.32
1903.3
1911.18
1918.95
1926.62
1934.19
1941.66
1949.04
1956.31
1963.5
1970.59
1977.6
1984.52
1991.35
1998.09
2004.76
2011.34
2017.84
2024.27
2030.61
2036.89
2043.08
2049.21
2055.26
2061.25
2067.16
2073.01
2078.79
2084.5
2090.15
2095.74
2101.26
2106.73
2112.13
2117.48
2122.76
2127.99
2133.16
2138.28
2143.34
2148.35
2153.31
2158.22
2163.07
2167.87
2172.63
2177.33
2181.99
2186.6
2191.16
2195.68
2200.15
2204.58
2208.96
2213.3
2217.6
2221.85
2226.06
2230.24
2234.37
2238.46
2242.52
2246.53
2250.51
2254.45
2258.36
2262.22
2266.05
2269.85
2273.61
2277.33
2281.03
2284.68
2288.31
2291.9
2295.46
2298.99
2302.49
2305.95
2309.39
2312.8
2316.17
2319.52
2322.83
2326.12
2329.38
2332.61
2335.82
2339
2342.14
2345.27
2348.37
2351.44
2354.48
2357.5
2360.5
2363.47
2366.41
2369.34
2372.23
2375.11
2377.96
2380.79
2383.59
2386.37
2389.13
2391.87
2394.59
2397.28
2399.96
2402.61
2405.24
2407.86
2410.7
2414.06
2418.03
2422.71
2428.2
2434.65
2442.17
2450.93
2461.07
2472.75
2486.12
2501.31
2518.44
2537.57
2558.71
2581.8
2606.69
2633.12
2660.77
2689.21
2717.94
2746.46
2774.25
2800.9
2826.12
2849.77
2871.93
2892.87
2912.95
2932.57
2952.01
2971.34
2990.42
3008.91
3026.31
3042.05
3055.47
3065.79
3071.92
136.885
206.51
273.75
336.394
394.492
448.539
499.109
546.654
591.564
634.155
674.672
713.354
750.361
785.831
819.914
852.705
884.301
914.783
944.217
972.689
1000.25
1026.94
1052.83
1077.95
1102.34
1126.05
1149.1
1171.53
1193.37
1214.64
1235.38
1255.6
1275.32
1294.57
1313.37
1331.74
1349.68
1367.23
1384.39
1401.18
1417.61
1433.69
1449.44
1464.87
1479.99
1494.81
1509.33
1523.58
1537.56
1551.27
1564.73
1577.93
1590.9
1603.64
1616.15
1628.44
1640.52
1652.39
1664.06
1675.53
1686.81
1697.9
1708.82
1719.56
1730.13
1740.53
1750.76
1760.84
1770.77
1780.54
1790.16
1799.65
1808.99
1818.19
1827.26
1836.19
1845
1853.69
1862.25
1870.69
1879.02
1887.23
1895.32
1903.31
1911.19
1918.97
1926.64
1934.21
1941.68
1949.06
1956.34
1963.52
1970.62
1977.62
1984.54
1991.38
1998.12
2004.79
2011.37
2017.87
2024.3
2030.65
2036.92
2043.12
2049.25
2055.3
2061.29
2067.2
2073.05
2078.83
2084.54
2090.2
2095.78
2101.31
2106.77
2112.18
2117.52
2122.81
2128.04
2133.21
2138.33
2143.39
2148.4
2153.36
2158.27
2163.12
2167.92
2172.68
2177.38
2182.04
2186.65
2191.21
2195.73
2200.2
2204.63
2209.01
2213.35
2217.65
2221.9
2226.12
2230.29
2234.42
2238.52
2242.57
2246.59
2250.57
2254.51
2258.41
2262.28
2266.11
2269.9
2273.66
2277.39
2281.08
2284.74
2288.37
2291.96
2295.52
2299.05
2302.55
2306.01
2309.45
2312.85
2316.23
2319.57
2322.89
2326.18
2329.44
2332.67
2335.87
2339.05
2342.2
2345.33
2348.42
2351.49
2354.54
2357.56
2360.55
2363.52
2366.47
2369.39
2372.29
2375.16
2378.02
2380.84
2383.65
2386.43
2389.19
2391.93
2394.65
2397.34
2400.01
2402.67
2405.3
2407.91
2410.75
2414.12
2418.09
2422.76
2428.26
2434.7
2442.23
2450.98
2461.12
2472.8
2486.17
2501.37
2518.5
2537.63
2558.77
2581.85
2606.74
2633.17
2660.82
2689.26
2717.99
2746.5
2774.29
2800.94
2826.15
2849.8
2871.96
2892.9
2912.98
2932.6
2952.02
2971.35
2990.43
3008.92
3026.32
3042.06
3055.48
3065.8
3071.92
162.365
222.821
284.029
342.873
398.541
451.002
500.519
547.359
591.794
634.065
674.369
712.911
749.831
785.249
819.305
852.088
883.687
914.181
943.634
972.126
999.708
1026.43
1052.34
1077.48
1101.9
1125.63
1148.71
1171.17
1193.02
1214.32
1235.07
1255.31
1275.05
1294.32
1313.14
1331.52
1349.48
1367.04
1384.21
1401.01
1417.45
1433.54
1449.31
1464.75
1479.87
1494.7
1509.24
1523.49
1537.48
1551.2
1564.66
1577.87
1590.85
1603.59
1616.11
1628.4
1640.48
1652.36
1664.03
1675.51
1686.8
1697.89
1708.81
1719.56
1730.12
1740.53
1750.77
1760.85
1770.78
1780.55
1790.18
1799.66
1809.01
1818.21
1827.28
1836.22
1845.03
1853.72
1862.28
1870.72
1879.05
1887.26
1895.36
1903.35
1911.23
1919.01
1926.68
1934.25
1941.73
1949.1
1956.38
1963.57
1970.67
1977.68
1984.59
1991.43
1998.18
2004.84
2011.43
2017.93
2024.36
2030.71
2036.98
2043.18
2049.31
2055.36
2061.35
2067.26
2073.11
2078.89
2084.61
2090.26
2095.84
2101.37
2106.84
2112.24
2117.58
2122.87
2128.1
2133.28
2138.39
2143.46
2148.47
2153.42
2158.33
2163.18
2167.99
2172.74
2177.45
2182.1
2186.71
2191.28
2195.79
2200.27
2204.69
2209.08
2213.42
2217.71
2221.97
2226.18
2230.36
2234.49
2238.58
2242.64
2246.65
2250.63
2254.57
2258.48
2262.34
2266.17
2269.97
2273.73
2277.46
2281.15
2284.81
2288.43
2292.02
2295.59
2299.11
2302.61
2306.08
2309.51
2312.92
2316.29
2319.64
2322.96
2326.24
2329.5
2332.74
2335.94
2339.12
2342.27
2345.39
2348.49
2351.56
2354.6
2357.62
2360.62
2363.59
2366.53
2369.46
2372.35
2375.23
2378.08
2380.91
2383.71
2386.49
2389.25
2391.99
2394.71
2397.4
2400.08
2402.73
2405.36
2407.97
2410.82
2414.18
2418.15
2422.82
2428.32
2434.76
2442.29
2451.05
2461.18
2472.86
2486.23
2501.43
2518.55
2537.68
2558.82
2581.91
2606.79
2633.22
2660.87
2689.3
2718.03
2746.54
2774.33
2800.98
2826.19
2849.84
2872
2892.93
2913.01
2932.62
2952.04
2971.37
2990.44
3008.93
3026.33
3042.06
3055.48
3065.8
3071.92
185.103
238.914
294.994
350.273
403.516
454.325
502.708
548.763
592.652
634.543
674.582
712.94
749.733
785.066
819.067
851.815
883.394
913.88
943.331
971.829
999.419
1026.15
1052.08
1077.23
1101.67
1125.41
1148.5
1170.97
1192.84
1214.15
1234.92
1255.17
1274.93
1294.2
1313.03
1331.42
1349.39
1366.96
1384.14
1400.95
1417.4
1433.5
1449.27
1464.71
1479.85
1494.68
1509.22
1523.48
1537.47
1551.2
1564.66
1577.88
1590.86
1603.61
1616.13
1628.43
1640.51
1652.39
1664.07
1675.55
1686.83
1697.93
1708.86
1719.6
1730.17
1740.58
1750.82
1760.91
1770.83
1780.61
1790.24
1799.72
1809.07
1818.28
1827.34
1836.29
1845.1
1853.79
1862.35
1870.79
1879.12
1887.33
1895.43
1903.42
1911.3
1919.08
1926.76
1934.33
1941.8
1949.18
1956.46
1963.65
1970.74
1977.75
1984.67
1991.51
1998.25
2004.92
2011.5
2018.01
2024.44
2030.79
2037.06
2043.26
2049.38
2055.44
2061.43
2067.34
2073.19
2078.97
2084.69
2090.34
2095.92
2101.45
2106.92
2112.32
2117.66
2122.95
2128.18
2133.36
2138.47
2143.54
2148.55
2153.5
2158.41
2163.26
2168.07
2172.82
2177.53
2182.18
2186.79
2191.35
2195.87
2200.34
2204.77
2209.15
2213.49
2217.79
2222.05
2226.26
2230.43
2234.57
2238.66
2242.71
2246.73
2250.71
2254.65
2258.55
2262.42
2266.25
2270.05
2273.81
2277.53
2281.22
2284.88
2288.51
2292.1
2295.66
2299.19
2302.68
2306.15
2309.59
2312.99
2316.37
2319.71
2323.03
2326.32
2329.58
2332.81
2336.01
2339.19
2342.34
2345.46
2348.56
2351.63
2354.68
2357.69
2360.69
2363.66
2366.61
2369.53
2372.42
2375.3
2378.15
2380.98
2383.78
2386.56
2389.32
2392.06
2394.78
2397.47
2400.15
2402.8
2405.43
2408.04
2410.88
2414.25
2418.22
2422.89
2428.39
2434.83
2442.36
2451.11
2461.25
2472.93
2486.29
2501.49
2518.61
2537.74
2558.88
2581.96
2606.84
2633.27
2660.92
2689.35
2718.08
2746.59
2774.38
2801.02
2826.23
2849.87
2872.03
2892.96
2913.03
2932.64
2952.06
2971.38
2990.46
3008.94
3026.33
3042.07
3055.49
3065.8
3071.93
205.417
254.348
306.192
358.265
409.194
458.357
505.572
550.795
594.091
635.555
675.287
713.423
750.056
785.274
819.191
851.88
883.419
913.876
943.309
971.794
999.378
1026.11
1052.03
1077.19
1101.63
1125.38
1148.48
1170.95
1192.82
1214.14
1234.91
1255.17
1274.93
1294.21
1313.05
1331.44
1349.42
1367
1384.18
1400.99
1417.45
1433.55
1449.32
1464.77
1479.91
1494.75
1509.29
1523.55
1537.54
1551.27
1564.74
1577.96
1590.94
1603.69
1616.21
1628.51
1640.6
1652.48
1664.16
1675.64
1686.93
1698.03
1708.95
1719.7
1730.27
1740.68
1750.92
1761
1770.93
1780.71
1790.34
1799.82
1809.17
1818.38
1827.45
1836.39
1845.2
1853.89
1862.45
1870.9
1879.22
1887.44
1895.54
1903.53
1911.41
1919.19
1926.86
1934.43
1941.9
1949.28
1956.56
1963.75
1970.85
1977.85
1984.77
1991.61
1998.36
2005.02
2011.61
2018.11
2024.54
2030.89
2037.16
2043.36
2049.48
2055.54
2061.52
2067.44
2073.29
2079.07
2084.78
2090.44
2096.02
2101.55
2107.01
2112.42
2117.76
2123.05
2128.28
2133.45
2138.57
2143.63
2148.64
2153.6
2158.5
2163.36
2168.16
2172.91
2177.62
2182.28
2186.88
2191.45
2195.96
2200.44
2204.86
2209.25
2213.59
2217.88
2222.14
2226.35
2230.52
2234.66
2238.75
2242.8
2246.82
2250.8
2254.74
2258.64
2262.51
2266.34
2270.13
2273.89
2277.62
2281.31
2284.97
2288.59
2292.18
2295.74
2299.27
2302.77
2306.23
2309.67
2313.07
2316.45
2319.79
2323.11
2326.4
2329.66
2332.89
2336.09
2339.27
2342.42
2345.54
2348.64
2351.71
2354.75
2357.77
2360.77
2363.74
2366.68
2369.6
2372.5
2375.38
2378.23
2381.05
2383.86
2386.64
2389.4
2392.14
2394.85
2397.55
2400.22
2402.87
2405.51
2408.12
2410.96
2414.32
2418.29
2422.96
2428.46
2434.9
2442.43
2451.18
2461.32
2472.99
2486.36
2501.55
2518.68
2537.8
2558.94
2582.02
2606.9
2633.33
2660.97
2689.4
2718.13
2746.63
2774.42
2801.06
2826.27
2849.91
2872.06
2892.99
2913.06
2932.66
2952.08
2971.4
2990.47
3008.94
3026.34
3042.07
3055.49
3065.81
3071.93
223.662
268.937
317.324
366.588
415.379
462.96
509.014
553.388
596.06
637.066
676.459
714.343
750.787
785.863
819.673
852.281
883.757
914.167
943.564
972.022
999.584
1026.3
1052.21
1077.36
1101.79
1125.54
1148.63
1171.1
1192.97
1214.29
1235.06
1255.32
1275.08
1294.36
1313.19
1331.59
1349.57
1367.14
1384.32
1401.14
1417.59
1433.7
1449.47
1464.92
1480.06
1494.9
1509.44
1523.7
1537.69
1551.42
1564.89
1578.11
1591.09
1603.84
1616.36
1628.66
1640.75
1652.63
1664.3
1675.78
1687.07
1698.17
1709.1
1719.84
1730.41
1740.82
1751.06
1761.15
1771.08
1780.85
1790.48
1799.97
1809.31
1818.52
1827.59
1836.53
1845.34
1854.03
1862.59
1871.03
1879.36
1887.57
1895.67
1903.66
1911.54
1919.32
1926.99
1934.56
1942.04
1949.41
1956.69
1963.88
1970.97
1977.98
1984.9
1991.73
1998.48
2005.15
2011.73
2018.23
2024.66
2031.01
2037.28
2043.48
2049.61
2055.66
2061.64
2067.56
2073.41
2079.19
2084.9
2090.55
2096.14
2101.66
2107.13
2112.53
2117.87
2123.16
2128.39
2133.56
2138.68
2143.74
2148.75
2153.71
2158.61
2163.46
2168.27
2173.02
2177.73
2182.38
2186.99
2191.55
2196.07
2200.54
2204.97
2209.35
2213.69
2217.99
2222.24
2226.45
2230.63
2234.76
2238.85
2242.9
2246.92
2250.9
2254.83
2258.74
2262.6
2266.43
2270.23
2273.99
2277.71
2281.4
2285.06
2288.69
2292.28
2295.84
2299.36
2302.86
2306.33
2309.76
2313.17
2316.54
2319.88
2323.2
2326.49
2329.75
2332.98
2336.18
2339.36
2342.51
2345.63
2348.73
2351.8
2354.84
2357.86
2360.85
2363.82
2366.77
2369.69
2372.59
2375.46
2378.31
2381.14
2383.94
2386.72
2389.48
2392.22
2394.93
2397.63
2400.3
2402.95
2405.59
2408.2
2411.04
2414.4
2418.37
2423.04
2428.54
2434.98
2442.5
2451.26
2461.39
2473.07
2486.43
2501.62
2518.75
2537.87
2559
2582.08
2606.96
2633.38
2661.02
2689.45
2718.17
2746.68
2774.46
2801.1
2826.3
2849.94
2872.1
2893.02
2913.09
2932.69
2952.1
2971.41
2990.48
3008.95
3026.35
3042.08
3055.49
3065.81
3071.93
240.142
282.623
328.201
375.049
421.912
468.011
512.943
556.475
598.514
639.042
678.073
715.68
751.911
786.822
820.503
853.009
884.405
914.75
944.094
972.509
1000.04
1026.72
1052.61
1077.74
1102.15
1125.88
1148.96
1171.42
1193.29
1214.59
1235.36
1255.61
1275.36
1294.64
1313.47
1331.86
1349.83
1367.4
1384.58
1401.39
1417.84
1433.94
1449.71
1465.16
1480.29
1495.13
1509.67
1523.93
1537.92
1551.64
1565.11
1578.33
1591.31
1604.05
1616.57
1628.87
1640.95
1652.83
1664.51
1675.99
1687.28
1698.37
1709.29
1720.04
1730.61
1741.01
1751.25
1761.34
1771.26
1781.04
1790.66
1800.15
1809.49
1818.7
1827.76
1836.7
1845.51
1854.2
1862.76
1871.2
1879.53
1887.74
1895.84
1903.83
1911.71
1919.48
1927.15
1934.72
1942.19
1949.57
1956.85
1964.04
1971.13
1978.14
1985.05
1991.89
1998.63
2005.29
2011.88
2018.38
2024.81
2031.15
2037.42
2043.62
2049.75
2055.8
2061.78
2067.7
2073.54
2079.32
2085.04
2090.69
2096.27
2101.8
2107.26
2112.66
2118.01
2123.29
2128.52
2133.69
2138.81
2143.87
2148.88
2153.83
2158.74
2163.59
2168.39
2173.14
2177.85
2182.5
2187.11
2191.67
2196.19
2200.66
2205.08
2209.46
2213.8
2218.1
2222.35
2226.57
2230.74
2234.87
2238.96
2243.01
2247.03
2251
2254.94
2258.85
2262.71
2266.54
2270.33
2274.09
2277.82
2281.51
2285.17
2288.79
2292.38
2295.94
2299.47
2302.96
2306.43
2309.86
2313.27
2316.64
2319.98
2323.3
2326.59
2329.84
2333.08
2336.28
2339.45
2342.6
2345.72
2348.82
2351.89
2354.93
2357.95
2360.95
2363.92
2366.86
2369.78
2372.68
2375.55
2378.4
2381.23
2384.03
2386.81
2389.57
2392.31
2395.02
2397.72
2400.39
2403.04
2405.67
2408.28
2411.12
2414.48
2418.45
2423.13
2428.62
2435.06
2442.58
2451.34
2461.47
2473.14
2486.51
2501.7
2518.82
2537.94
2559.07
2582.14
2607.02
2633.44
2661.08
2689.5
2718.22
2746.72
2774.51
2801.14
2826.34
2849.98
2872.13
2893.05
2913.11
2932.71
2952.12
2971.43
2990.49
3008.96
3026.35
3042.08
3055.5
3065.81
3071.93
255.102
295.41
338.709
383.505
428.663
473.404
517.279
559.995
601.406
641.449
680.104
717.417
753.416
788.142
821.675
854.06
885.357
915.621
944.897
973.255
1000.73
1027.38
1053.23
1078.32
1102.71
1126.42
1149.48
1171.92
1193.76
1215.05
1235.8
1256.04
1275.78
1295.05
1313.87
1332.25
1350.21
1367.77
1384.94
1401.75
1418.19
1434.28
1450.05
1465.49
1480.62
1495.45
1509.98
1524.24
1538.22
1551.94
1565.41
1578.62
1591.59
1604.33
1616.85
1629.15
1641.22
1653.1
1664.77
1676.25
1687.53
1698.63
1709.54
1720.28
1730.85
1741.25
1751.49
1761.57
1771.5
1781.27
1790.89
1800.37
1809.71
1818.91
1827.98
1836.92
1845.73
1854.41
1862.97
1871.41
1879.73
1887.94
1896.04
1904.02
1911.9
1919.67
1927.34
1934.91
1942.38
1949.75
1957.03
1964.22
1971.31
1978.31
1985.23
1992.06
1998.81
2005.47
2012.05
2018.55
2024.97
2031.32
2037.59
2043.79
2049.91
2055.96
2061.94
2067.85
2073.7
2079.48
2085.19
2090.84
2096.42
2101.95
2107.41
2112.81
2118.15
2123.44
2128.66
2133.84
2138.95
2144.01
2149.02
2153.97
2158.88
2163.73
2168.53
2173.28
2177.98
2182.64
2187.24
2191.8
2196.32
2200.79
2205.21
2209.59
2213.93
2218.23
2222.48
2226.69
2230.86
2234.99
2239.08
2243.14
2247.15
2251.13
2255.06
2258.96
2262.83
2266.66
2270.45
2274.21
2277.93
2281.62
2285.28
2288.9
2292.49
2296.05
2299.58
2303.07
2306.54
2309.97
2313.37
2316.75
2320.09
2323.41
2326.69
2329.95
2333.18
2336.38
2339.56
2342.71
2345.83
2348.92
2351.99
2355.04
2358.05
2361.05
2364.02
2366.96
2369.88
2372.77
2375.65
2378.5
2381.32
2384.13
2386.91
2389.67
2392.4
2395.12
2397.81
2400.48
2403.13
2405.76
2408.37
2411.22
2414.58
2418.54
2423.22
2428.71
2435.15
2442.67
2451.42
2461.55
2473.23
2486.59
2501.77
2518.89
2538.01
2559.14
2582.21
2607.08
2633.5
2661.13
2689.55
2718.27
2746.77
2774.55
2801.19
2826.38
2850.02
2872.16
2893.08
2913.14
2932.73
2952.14
2971.45
2990.51
3008.97
3026.36
3042.09
3055.5
3065.81
3071.94
268.729
307.328
348.783
391.856
435.531
479.054
521.952
563.894
604.695
644.257
682.528
719.535
755.287
789.812
823.18
855.428
886.61
916.776
945.969
974.256
1001.67
1028.26
1054.07
1079.12
1103.47
1127.14
1150.17
1172.58
1194.4
1215.67
1236.4
1256.62
1276.34
1295.59
1314.39
1332.76
1350.71
1368.26
1385.42
1402.21
1418.64
1434.72
1450.48
1465.91
1481.03
1495.85
1510.38
1524.62
1538.6
1552.31
1565.77
1578.98
1591.94
1604.68
1617.19
1629.48
1641.55
1653.42
1665.09
1676.56
1687.84
1698.93
1709.84
1720.58
1731.14
1741.54
1751.77
1761.85
1771.77
1781.54
1791.16
1800.64
1809.97
1819.17
1828.23
1837.17
1845.97
1854.65
1863.21
1871.65
1879.97
1888.17
1896.27
1904.25
1912.13
1919.9
1927.56
1935.13
1942.6
1949.97
1957.24
1964.43
1971.52
1978.52
1985.43
1992.26
1999
2005.66
2012.24
2018.74
2025.16
2031.51
2037.78
2043.97
2050.09
2056.14
2062.12
2068.03
2073.88
2079.65
2085.37
2091.01
2096.59
2102.12
2107.58
2112.98
2118.32
2123.6
2128.83
2134
2139.11
2144.17
2149.17
2154.13
2159.03
2163.88
2168.68
2173.43
2178.13
2182.78
2187.39
2191.95
2196.46
2200.93
2205.36
2209.73
2214.07
2218.37
2222.62
2226.83
2231
2235.13
2239.22
2243.27
2247.28
2251.26
2255.19
2259.09
2262.96
2266.79
2270.58
2274.34
2278.06
2281.75
2285.4
2289.03
2292.62
2296.17
2299.7
2303.19
2306.66
2310.09
2313.49
2316.86
2320.21
2323.52
2326.81
2330.06
2333.29
2336.5
2339.67
2342.82
2345.94
2349.03
2352.1
2355.14
2358.16
2361.15
2364.12
2367.07
2369.98
2372.88
2375.75
2378.6
2381.43
2384.23
2387.01
2389.77
2392.5
2395.22
2397.91
2400.58
2403.23
2405.86
2408.47
2411.31
2414.67
2418.64
2423.31
2428.8
2435.24
2442.76
2451.51
2461.64
2473.31
2486.67
2501.85
2518.97
2538.08
2559.21
2582.28
2607.14
2633.56
2661.19
2689.61
2718.32
2746.82
2774.59
2801.23
2826.42
2850.05
2872.2
2893.11
2913.17
2932.76
2952.16
2971.46
2990.52
3008.98
3026.37
3042.1
3055.51
3065.82
3071.94
281.168
318.416
358.387
400.032
442.439
484.888
526.902
568.125
608.344
647.435
685.324
722.017
757.511
791.822
825.009
857.105
888.157
918.211
947.307
975.509
1002.85
1029.38
1055.12
1080.12
1104.42
1128.05
1151.04
1173.42
1195.2
1216.44
1237.14
1257.33
1277.04
1296.26
1315.04
1333.39
1351.32
1368.85
1386
1402.77
1419.19
1435.26
1451
1466.42
1481.53
1496.34
1510.85
1525.09
1539.06
1552.76
1566.21
1579.4
1592.37
1605.09
1617.59
1629.88
1641.94
1653.8
1665.46
1676.93
1688.2
1699.29
1710.19
1720.92
1731.48
1741.87
1752.1
1762.17
1772.09
1781.85
1791.47
1800.94
1810.27
1819.47
1828.53
1837.46
1846.26
1854.93
1863.49
1871.92
1880.24
1888.44
1896.53
1904.51
1912.38
1920.15
1927.81
1935.38
1942.84
1950.21
1957.48
1964.66
1971.75
1978.75
1985.66
1992.49
1999.23
2005.88
2012.46
2018.96
2025.38
2031.72
2037.98
2044.18
2050.3
2056.34
2062.32
2068.23
2074.07
2079.85
2085.56
2091.2
2096.78
2102.3
2107.76
2113.16
2118.5
2123.78
2129
2134.17
2139.28
2144.34
2149.35
2154.3
2159.2
2164.05
2168.84
2173.59
2178.29
2182.95
2187.55
2192.11
2196.62
2201.09
2205.51
2209.89
2214.22
2218.52
2222.77
2226.98
2231.15
2235.27
2239.36
2243.41
2247.42
2251.4
2255.33
2259.23
2263.1
2266.92
2270.71
2274.47
2278.19
2281.88
2285.54
2289.16
2292.75
2296.3
2299.83
2303.32
2306.78
2310.22
2313.62
2316.99
2320.33
2323.65
2326.93
2330.19
2333.41
2336.62
2339.79
2342.94
2346.06
2349.15
2352.22
2355.26
2358.28
2361.27
2364.24
2367.18
2370.1
2372.99
2375.86
2378.71
2381.54
2384.34
2387.12
2389.87
2392.61
2395.32
2398.02
2400.69
2403.34
2405.97
2408.58
2411.42
2414.77
2418.74
2423.41
2428.9
2435.34
2442.86
2451.61
2461.73
2473.4
2486.76
2501.94
2519.05
2538.16
2559.28
2582.35
2607.21
2633.62
2661.25
2689.66
2718.37
2746.87
2774.64
2801.27
2826.46
2850.09
2872.23
2893.14
2913.19
2932.78
2952.18
2971.48
2990.53
3008.99
3026.38
3042.1
3055.51
3065.82
3071.94
292.528
328.715
367.505
407.986
449.331
490.854
532.081
572.648
612.321
650.958
688.47
724.848
760.076
794.161
827.155
859.085
889.993
919.922
948.908
977.012
1004.27
1030.71
1056.39
1081.33
1105.57
1129.15
1152.09
1174.42
1196.17
1217.37
1238.04
1258.2
1277.87
1297.06
1315.82
1334.14
1352.05
1369.56
1386.68
1403.44
1419.84
1435.89
1451.61
1467.02
1482.11
1496.91
1511.41
1525.63
1539.59
1553.28
1566.72
1579.9
1592.85
1605.57
1618.06
1630.34
1642.39
1654.25
1665.9
1677.35
1688.62
1699.7
1710.6
1721.32
1731.87
1742.26
1752.48
1762.54
1772.45
1782.21
1791.82
1801.29
1810.61
1819.8
1828.86
1837.78
1846.58
1855.25
1863.8
1872.23
1880.54
1888.74
1896.82
1904.8
1912.67
1920.43
1928.09
1935.65
1943.11
1950.48
1957.75
1964.92
1972.01
1979
1985.91
1992.73
1999.47
2006.13
2012.7
2019.2
2025.61
2031.95
2038.21
2044.4
2050.52
2056.57
2062.54
2068.45
2074.29
2080.06
2085.77
2091.41
2096.99
2102.51
2107.96
2113.36
2118.7
2123.98
2129.2
2134.36
2139.47
2144.53
2149.53
2154.48
2159.38
2164.23
2169.02
2173.77
2178.47
2183.12
2187.72
2192.28
2196.79
2201.26
2205.68
2210.05
2214.39
2218.68
2222.93
2227.14
2231.3
2235.43
2239.52
2243.57
2247.58
2251.55
2255.49
2259.38
2263.25
2267.07
2270.86
2274.62
2278.34
2282.02
2285.68
2289.3
2292.89
2296.44
2299.97
2303.46
2306.92
2310.35
2313.75
2317.12
2320.46
2323.78
2327.06
2330.32
2333.54
2336.74
2339.92
2343.06
2346.18
2349.27
2352.34
2355.38
2358.4
2361.39
2364.36
2367.3
2370.22
2373.11
2375.98
2378.83
2381.65
2384.45
2387.23
2389.99
2392.72
2395.44
2398.13
2400.8
2403.45
2406.08
2408.69
2411.53
2414.88
2418.85
2423.52
2429.01
2435.44
2442.96
2451.7
2461.83
2473.5
2486.85
2502.03
2519.14
2538.24
2559.36
2582.42
2607.28
2633.69
2661.31
2689.72
2718.43
2746.91
2774.68
2801.31
2826.5
2850.12
2872.26
2893.17
2913.22
2932.8
2952.2
2971.49
2990.54
3009
3026.38
3042.11
3055.51
3065.82
3071.94
302.889
338.258
376.132
415.69
456.167
496.909
537.453
577.429
616.598
654.805
691.949
728.012
762.969
796.82
829.611
861.362
892.114
921.904
950.767
978.761
1005.92
1032.28
1057.87
1082.73
1106.91
1130.43
1153.31
1175.6
1197.3
1218.45
1239.08
1259.2
1278.83
1298
1316.72
1335.02
1352.9
1370.38
1387.48
1404.21
1420.59
1436.62
1452.32
1467.71
1482.79
1497.56
1512.05
1526.26
1540.2
1553.87
1567.3
1580.47
1593.41
1606.11
1618.59
1630.86
1642.9
1654.74
1666.39
1677.83
1689.09
1700.16
1711.05
1721.76
1732.31
1742.68
1752.9
1762.96
1772.86
1782.61
1792.21
1801.67
1810.99
1820.18
1829.23
1838.14
1846.94
1855.6
1864.15
1872.57
1880.88
1889.07
1897.15
1905.12
1912.99
1920.74
1928.4
1935.96
1943.41
1950.77
1958.04
1965.21
1972.29
1979.28
1986.19
1993.01
1999.74
2006.39
2012.96
2019.46
2025.87
2032.21
2038.46
2044.65
2050.77
2056.81
2062.78
2068.69
2074.52
2080.29
2086
2091.64
2097.21
2102.73
2108.18
2113.58
2118.91
2124.19
2129.41
2134.57
2139.68
2144.73
2149.74
2154.68
2159.58
2164.42
2169.22
2173.96
2178.66
2183.31
2187.91
2192.47
2196.97
2201.44
2205.86
2210.23
2214.57
2218.86
2223.1
2227.31
2231.48
2235.6
2239.69
2243.73
2247.74
2251.72
2255.65
2259.55
2263.41
2267.23
2271.02
2274.77
2278.49
2282.18
2285.83
2289.45
2293.04
2296.59
2300.11
2303.61
2307.07
2310.5
2313.9
2317.26
2320.61
2323.92
2327.2
2330.45
2333.68
2336.88
2340.05
2343.2
2346.31
2349.41
2352.47
2355.51
2358.53
2361.52
2364.48
2367.43
2370.34
2373.24
2376.11
2378.95
2381.78
2384.58
2387.35
2390.11
2392.84
2395.56
2398.25
2400.92
2403.57
2406.19
2408.8
2411.64
2415
2418.96
2423.63
2429.12
2435.55
2443.07
2451.81
2461.93
2473.6
2486.95
2502.12
2519.22
2538.33
2559.44
2582.5
2607.35
2633.75
2661.37
2689.78
2718.48
2746.96
2774.73
2801.35
2826.54
2850.16
2872.3
2893.2
2913.25
2932.83
2952.22
2971.51
2990.56
3009.01
3026.39
3042.11
3055.52
3065.83
3071.95
)
;

boundaryField
{
    leftBoundary
    {
        type            zeroGradient;
    }
    rightBoundary
    {
        type            zeroGradient;
    }
    highVoltage
    {
        type            fixedValue;
        value           uniform 10000;
    }
    ground
    {
        type            fixedValue;
        value           uniform 0;
    }
    frontAndBack
    {
        type            empty;
    }
    dielectric_to_insulator
    {
        type            compressible::turbulentTemperatureCoupledBaffleMixed;
        refValue        nonuniform List<scalar> 
380
(
3470.39
3480.22
3496.25
3516.48
3539.4
3563.83
3589.19
3615.97
3645.99
3682
3726.91
3783
3851.53
3932.62
4025.33
4127.75
4237.19
4350.43
4464.02
4574.61
4679.3
4775.82
4862.73
4939.3
5005.51
5061.83
5109.06
5148.22
5180.37
5206.56
5227.13
5244.91
5263.06
5281.57
5300.47
5319.75
5339.44
5359.54
5380.07
5401.05
5422.48
5444.4
5466.8
5489.71
5513.15
5537.13
5561.68
5586.82
5612.56
5638.94
5665.97
5693.69
5722.12
5751.28
5781.22
5811.96
5843.53
5875.98
5909.33
5943.64
5978.95
6015.29
6052.72
6091.29
6131.06
6172.09
6214.44
6258.18
6303.38
6350.12
6398.48
6448.55
6500.42
6554.21
6610
6667.93
6728.11
6790.68
6855.76
6923.5
6994.05
7067.55
7144.15
7223.96
7307.1
7393.63
7483.55
7576.77
7673.04
7771.91
7872.64
7974.14
8074.89
8172.95
8266.09
8352.74
8430.78
8498.47
8555.59
8602.57
8640.21
8669.44
8691.16
8706.16
8715.11
8718.51
8716.75
8710.09
8698.66
8682.52
8661.58
8635.7
8604.59
8567.88
8525.04
8475.42
8418.2
8352.34
8276.59
8189.42
8089
7973.23
7839.75
7686.09
7510.01
7309.94
7085.59
6837.08
6567.1
6281.13
5983.36
5677.36
5365.77
5050.29
4731.77
4410.34
4085.53
3756.27
3420.92
3077.13
2721.61
2349.71
1954.63
1525.87
1044.85
463.773
78.9149
177.686
258.038
327.831
390.156
446.806
499.015
547.599
593.164
636.157
676.908
715.709
752.759
788.22
822.259
854.984
886.499
916.892
946.233
974.609
1002.07
1028.68
1054.48
1079.5
1103.81
1127.44
1150.42
1172.78
1194.55
1215.76
1236.43
1256.6
1276.27
1295.46
1314.22
1332.54
1350.44
1367.95
1385.07
1401.82
1418.21
1434.26
1449.98
1465.38
1480.48
1495.27
1509.77
1523.99
1537.95
1551.64
1565.08
1578.26
1591.21
1603.93
1616.43
1628.7
1640.76
1652.62
1664.27
1675.73
1687
1698.08
1708.99
1719.72
1730.27
1740.66
1750.89
1760.96
1770.88
1780.64
1790.26
1799.73
1809.06
1818.26
1827.32
1836.25
1845.05
1853.73
1862.29
1870.72
1879.04
1887.25
1895.34
1903.32
1911.2
1918.97
1926.64
1934.2
1941.67
1949.04
1956.32
1963.5
1970.59
1977.6
1984.51
1991.34
1998.09
2004.75
2011.33
2017.83
2024.26
2030.6
2036.87
2043.07
2049.19
2055.24
2061.23
2067.14
2072.99
2078.76
2084.48
2090.13
2095.71
2101.24
2106.7
2112.1
2117.45
2122.73
2127.96
2133.13
2138.25
2143.31
2148.32
2153.28
2158.18
2163.03
2167.84
2172.59
2177.29
2181.95
2186.56
2191.12
2195.64
2200.11
2204.53
2208.92
2213.26
2217.55
2221.81
2226.02
2230.19
2234.33
2238.42
2242.47
2246.49
2250.47
2254.41
2258.31
2262.18
2266.01
2269.8
2273.56
2277.29
2280.98
2284.64
2288.26
2291.86
2295.42
2298.94
2302.44
2305.91
2309.34
2312.75
2316.12
2319.47
2322.79
2326.07
2329.33
2332.56
2335.77
2338.95
2342.1
2345.22
2348.32
2351.39
2354.43
2357.45
2360.45
2363.42
2366.36
2369.29
2372.18
2375.06
2377.91
2380.74
2383.54
2386.32
2389.08
2391.82
2394.54
2397.23
2399.91
2402.56
2405.19
2407.8
2410.65
2414.01
2417.98
2422.66
2428.15
2434.6
2442.12
2450.88
2461.02
2472.7
2486.07
2501.26
2518.39
2537.52
2558.66
2581.75
2606.64
2633.08
2660.73
2689.17
2717.9
2746.42
2774.21
2800.86
2826.08
2849.73
2871.9
2892.84
2912.93
2932.55
2951.99
2971.32
2990.41
3008.9
3026.3
3042.05
3055.47
3065.79
3071.92
)
;
        refGradient     uniform 0;
        valueFraction   uniform 0.500009;
        Tnbr            voltI;
        thicknessLayers 0 ( );
        kappaLayers     0 ( );
        kappaMethod     lookup;
        kappa           epsilonD;
        alphaAni        Anialpha;
        value           nonuniform List<scalar> 
380
(
3470.39
3480.22
3496.25
3516.47
3539.4
3563.82
3589.18
3615.96
3645.98
3681.99
3726.91
3783.01
3851.55
3932.66
4025.38
4127.83
4237.3
4350.59
4464.23
4574.89
4679.64
4776.24
4863.22
4939.86
5006.14
5062.52
5109.81
5149.02
5181.21
5207.43
5228.03
5245.84
5264.01
5282.56
5301.48
5320.79
5340.51
5360.64
5381.21
5402.22
5423.7
5445.65
5468.09
5491.05
5514.53
5538.56
5563.16
5588.35
5614.14
5640.58
5667.68
5695.46
5723.96
5753.2
5783.21
5814.03
5845.7
5878.24
5911.69
5946.11
5981.52
6017.99
6055.56
6094.27
6134.19
6175.38
6217.91
6261.84
6307.25
6354.21
6402.82
6453.16
6505.33
6559.44
6615.6
6673.93
6734.55
6797.61
6863.25
6931.62
7002.88
7077.18
7154.69
7235.54
7319.88
7407.8
7499.32
7594.39
7692.78
7794.09
7897.59
8002.17
8106.23
8207.7
8304.13
8393.71
8474.13
8543.53
8601.76
8649.42
8687.44
8716.88
8738.73
8753.86
8762.96
8766.58
8765.13
8758.88
8747.96
8732.44
8712.26
8687.24
8657.13
8621.53
8579.95
8531.72
8476
8411.76
8337.7
8252.25
8153.5
8039.21
7906.83
7753.65
7577.11
7375.34
7147.88
6894.95
6619.61
6327.89
6024.44
5713.16
5396.83
5077.21
4755.14
4430.73
4103.48
3772.33
3435.67
3091.25
2735.98
2365.63
1974.19
1552.86
1087.65
551.041
93.7887
184.288
261.422
329.533
390.885
446.948
498.796
547.156
592.586
635.5
676.21
714.996
752.047
787.52
821.578
854.327
885.868
916.289
945.658
974.063
1001.55
1028.19
1054.01
1079.06
1103.4
1127.05
1150.05
1172.43
1194.21
1215.44
1236.13
1256.31
1276
1295.21
1313.97
1332.31
1350.22
1367.74
1384.87
1401.63
1418.04
1434.09
1449.82
1465.23
1480.33
1495.13
1509.64
1523.87
1537.83
1551.53
1564.97
1578.16
1591.12
1603.84
1616.34
1628.62
1640.69
1652.55
1664.2
1675.67
1686.94
1698.03
1708.93
1719.67
1730.22
1740.62
1750.85
1760.92
1770.84
1780.6
1790.22
1799.7
1809.03
1818.23
1827.29
1836.23
1845.03
1853.71
1862.27
1870.71
1879.03
1887.23
1895.33
1903.31
1911.19
1918.96
1926.63
1934.2
1941.67
1949.04
1956.32
1963.5
1970.59
1977.6
1984.51
1991.35
1998.09
2004.75
2011.33
2017.84
2024.26
2030.61
2036.88
2043.08
2049.2
2055.25
2061.24
2067.15
2073
2078.78
2084.49
2090.14
2095.73
2101.25
2106.71
2112.12
2117.46
2122.75
2127.98
2133.15
2138.26
2143.33
2148.34
2153.29
2158.2
2163.05
2167.85
2172.61
2177.31
2181.97
2186.58
2191.14
2195.66
2200.13
2204.56
2208.94
2213.28
2217.57
2221.83
2226.04
2230.22
2234.35
2238.44
2242.5
2246.51
2250.49
2254.43
2258.33
2262.2
2266.03
2269.83
2273.59
2277.31
2281
2284.66
2288.29
2291.88
2295.44
2298.97
2302.46
2305.93
2309.37
2312.77
2316.15
2319.49
2322.81
2326.1
2329.36
2332.59
2335.79
2338.97
2342.12
2345.24
2348.34
2351.41
2354.46
2357.48
2360.47
2363.44
2366.39
2369.31
2372.21
2375.08
2377.93
2380.76
2383.57
2386.35
2389.11
2391.85
2394.56
2397.26
2399.93
2402.59
2405.22
2407.83
2410.67
2414.03
2418
2422.68
2428.18
2434.62
2442.15
2450.9
2461.04
2472.72
2486.09
2501.29
2518.42
2537.55
2558.69
2581.78
2606.66
2633.1
2660.75
2689.19
2717.92
2746.44
2774.23
2800.88
2826.1
2849.75
2871.91
2892.85
2912.94
2932.56
2952
2971.33
2990.41
3008.9
3026.31
3042.05
3055.47
3065.79
3071.92
)
;
    }
    dielectric_to_region0
    {
        type            compressible::turbulentTemperatureCoupledBaffleMixed;
        refValue        nonuniform List<scalar> 
445
(
3470.36
3480.18
3496.19
3516.39
3539.27
3563.66
3588.97
3615.74
3645.77
3681.84
3726.86
3783.12
3851.89
3933.3
4026.43
4129.39
4239.52
4353.6
4468.17
4579.87
4685.76
4783.55
4871.71
4949.52
5016.87
5074.24
5122.42
5162.39
5195.24
5222
5243.05
5261.25
5279.83
5298.79
5318.16
5337.93
5358.13
5378.76
5399.85
5421.41
5443.46
5466.01
5489.07
5512.69
5536.86
5561.61
5586.97
5612.96
5639.6
5666.92
5694.95
5723.72
5753.26
5783.61
5814.8
5846.86
5879.84
5913.79
5948.74
5984.76
6021.88
6060.18
6099.71
6140.53
6182.73
6226.38
6271.56
6318.38
6366.92
6417.3
6469.65
6524.09
6580.79
6639.89
6701.6
6766.1
6833.65
6904.5
6978.96
7057.37
7140.14
7227.74
7320.73
7419.77
7525.67
7639.42
7762.29
7895.86
8042.28
8204.44
8386.48
8594.69
8839.5
9141.66
9562.49
9104.82
8222.94
7566.61
7014.13
6524.83
6078.54
5663.32
5271.38
4897.46
4537.85
4190.01
3852.29
3523.83
3204.59
2895.34
2597.71
2314.22
2048.05
1802.67
1583.41
1391.03
1223.44
1079.37
956.596
852.445
764.208
689.363
625.693
571.314
524.649
484.394
449.481
419.033
392.332
368.79
347.923
329.333
312.69
297.72
284.194
271.922
260.745
250.525
241.149
232.519
224.553
217.177
210.331
203.962
198.023
192.474
187.28
182.409
177.835
173.533
169.481
165.662
162.057
158.653
155.434
152.389
149.507
146.778
144.192
141.743
139.423
137.225
135.142
133.171
131.305
129.542
127.876
126.305
124.825
123.434
122.129
120.91
119.774
118.72
117.748
116.858
116.05
115.323
114.681
114.124
113.655
113.277
112.994
112.811
112.733
112.768
112.926
113.216
113.65
114.246
115.02
115.996
117.199
118.663
120.428
122.54
125.059
128.057
131.619
135.856
140.899
146.906
154.081
162.66
172.931
185.229
199.927
217.436
238.134
262.309
290.072
321.257
355.449
392.001
430.193
469.339
508.837
548.248
587.212
625.484
662.901
699.353
734.808
769.231
802.612
834.987
866.37
896.793
926.29
954.89
982.647
1009.59
1035.75
1061.17
1085.87
1109.9
1133.28
1156.04
1178.21
1199.8
1220.86
1241.39
1261.43
1280.98
1300.07
1318.72
1336.95
1354.77
1372.2
1389.24
1405.92
1422.25
1438.23
1453.89
1469.23
1484.27
1499.01
1513.45
1527.63
1541.53
1555.18
1568.57
1581.71
1594.62
1607.3
1619.75
1631.99
1644.01
1655.83
1667.45
1678.88
1690.11
1701.16
1712.03
1722.73
1733.25
1743.61
1753.81
1763.85
1773.74
1783.47
1793.06
1802.51
1811.81
1820.98
1830.02
1838.92
1847.7
1856.36
1864.89
1873.3
1881.6
1889.78
1897.85
1905.81
1913.66
1921.41
1929.06
1936.6
1944.05
1951.4
1958.66
1965.83
1972.9
1979.88
1986.78
1993.59
2000.32
2006.96
2013.52
2020.01
2026.41
2032.74
2039
2045.18
2051.29
2057.32
2063.29
2069.19
2075.02
2080.78
2086.48
2092.12
2097.69
2103.2
2108.65
2114.03
2119.36
2124.64
2129.85
2135.01
2140.11
2145.16
2150.16
2155.1
2159.99
2164.83
2169.63
2174.37
2179.06
2183.7
2188.3
2192.85
2197.36
2201.82
2206.23
2210.61
2214.94
2219.22
2223.47
2227.67
2231.83
2235.96
2240.04
2244.08
2248.09
2252.06
2255.99
2259.88
2263.74
2267.56
2271.35
2275.1
2278.81
2282.5
2286.15
2289.76
2293.35
2296.9
2300.42
2303.91
2307.37
2310.79
2314.19
2317.56
2320.9
2324.21
2327.49
2330.74
2333.96
2337.16
2340.33
2343.47
2346.59
2349.68
2352.74
2355.78
2358.8
2361.78
2364.75
2367.69
2370.6
2373.49
2376.36
2379.21
2382.03
2384.83
2387.6
2390.36
2393.09
2395.8
2398.49
2401.16
2403.81
2406.43
2409.04
2411.87
2415.23
2419.19
2423.86
2429.34
2435.77
2443.28
2452.02
2462.14
2473.8
2487.14
2502.31
2519.4
2538.5
2559.6
2582.65
2607.49
2633.89
2661.49
2689.89
2718.59
2747.06
2774.82
2801.44
2826.62
2850.23
2872.36
2893.26
2913.3
2932.87
2952.26
2971.54
2990.58
3009.03
3026.4
3042.12
3055.52
3065.83
3071.95
)
;
        refGradient     uniform 0;
        valueFraction   uniform 0.25641;
        Tnbr            voltA;
        thicknessLayers 0 ( );
        kappaLayers     0 ( );
        kappaMethod     lookup;
        kappa           epsilonD;
        alphaAni        Anialpha;
        value           nonuniform List<scalar> 
445
(
3470.36
3480.19
3496.19
3516.4
3539.28
3563.67
3589
3615.76
3645.79
3681.86
3726.87
3783.12
3851.87
3933.25
4026.35
4129.28
4239.36
4353.39
4467.9
4579.54
4685.37
4783.09
4871.2
4948.95
5016.26
5073.58
5121.72
5161.66
5194.48
5221.22
5242.24
5260.43
5278.99
5297.94
5317.28
5337.04
5357.21
5377.83
5398.9
5420.44
5442.46
5464.98
5488.03
5511.61
5535.76
5560.49
5585.82
5611.77
5638.38
5665.67
5693.66
5722.4
5751.9
5782.21
5813.35
5845.37
5878.31
5912.2
5947.11
5983.06
6020.13
6058.37
6097.83
6138.58
6180.7
6224.27
6269.36
6316.08
6364.52
6414.79
6467.02
6521.33
6577.88
6636.83
6698.35
6762.66
6829.99
6900.6
6974.77
7052.86
7135.26
7222.42
7314.89
7413.3
7518.44
7631.26
7752.92
7884.93
8029.24
8188.45
8366.18
8567.7
8801.3
9081.6
9441.04
8870.05
8107.43
7491.75
6958.99
6480.6
6040.61
5628.97
5238.87
4865.54
4505.58
4156.59
3816.99
3486
3163.61
2850.65
2548.9
2261.1
1990.79
1741.9
1520.21
1326.72
1159.29
1016.43
895.62
793.898
708.325
636.215
575.242
523.457
479.247
441.293
408.52
380.055
355.188
333.34
314.038
296.893
281.586
267.853
255.473
244.264
234.074
224.775
216.256
208.426
201.208
194.533
188.344
182.591
177.232
172.229
167.549
163.163
159.046
155.176
151.534
148.102
144.864
141.807
138.918
136.185
133.6
131.152
128.834
126.639
124.56
122.59
120.725
118.959
117.289
115.71
114.219
112.813
111.489
110.245
109.079
107.989
106.974
106.033
105.166
104.373
103.652
103.007
102.437
101.943
101.53
101.199
100.954
100.8
100.742
100.788
100.945
101.224
101.637
102.198
102.926
103.841
104.97
106.343
108
109.987
112.361
115.194
118.57
122.599
127.412
133.171
140.081
148.387
158.387
170.438
184.942
202.349
223.086
247.495
275.722
307.599
342.666
380.201
419.409
459.544
499.968
540.221
579.938
618.877
656.881
693.848
729.755
764.575
798.305
830.989
862.646
893.314
923.029
951.824
979.758
1006.86
1033.17
1058.72
1083.54
1107.68
1131.16
1154.01
1176.27
1197.94
1219.07
1239.67
1259.77
1279.38
1298.53
1317.24
1335.51
1353.38
1370.85
1387.93
1404.65
1421.01
1437.03
1452.73
1468.1
1483.17
1497.93
1512.41
1526.61
1540.54
1554.21
1567.62
1580.79
1593.72
1606.42
1618.89
1631.15
1643.19
1655.02
1666.66
1678.1
1689.35
1700.41
1711.3
1722.01
1732.55
1742.92
1753.13
1763.19
1773.08
1782.83
1792.43
1801.89
1811.2
1820.38
1829.43
1838.34
1847.13
1855.8
1864.34
1872.76
1881.06
1889.25
1897.33
1905.3
1913.16
1920.92
1928.57
1936.12
1943.58
1950.93
1958.2
1965.37
1972.45
1979.44
1986.34
1993.16
1999.89
2006.54
2013.11
2019.6
2026.01
2032.34
2038.6
2044.79
2050.9
2056.94
2062.91
2068.81
2074.65
2080.42
2086.12
2091.76
2097.33
2102.85
2108.3
2113.69
2119.03
2124.3
2129.52
2134.68
2139.79
2144.84
2149.84
2154.79
2159.69
2164.53
2169.32
2174.07
2178.76
2183.41
2188.01
2192.56
2197.07
2201.54
2205.95
2210.33
2214.66
2218.95
2223.2
2227.4
2231.57
2235.69
2239.78
2243.82
2247.83
2251.8
2255.74
2259.63
2263.49
2267.31
2271.1
2274.86
2278.58
2282.26
2285.91
2289.53
2293.12
2296.67
2300.19
2303.68
2307.14
2310.57
2313.97
2317.34
2320.68
2323.99
2327.27
2330.53
2333.75
2336.95
2340.12
2343.27
2346.38
2349.48
2352.54
2355.58
2358.6
2361.59
2364.55
2367.49
2370.41
2373.3
2376.17
2379.02
2381.84
2384.64
2387.42
2390.17
2392.91
2395.62
2398.31
2400.98
2403.63
2406.25
2408.86
2411.7
2415.06
2419.02
2423.69
2429.18
2435.61
2443.12
2451.86
2461.99
2473.65
2487
2502.17
2519.27
2538.37
2559.48
2582.54
2607.39
2633.79
2661.4
2689.81
2718.51
2746.99
2774.75
2801.38
2826.56
2850.18
2872.31
2893.22
2913.26
2932.84
2952.23
2971.52
2990.56
3009.02
3026.39
3042.11
3055.52
3065.83
3071.95
)
;
    }
}


// ************************************************************************* //
